2025-08-01 09:19:37.423201	Isotope: Na23	Mass: 22.98976928	Wavenumber: 0.0 cm⁻¹	Beam energy: 19930.0 eV	Anticollinear
Scan Start: 0.0 V	Scan Stop: 3.0 V	Scan Step Size: 0.01 V	Scan Dwell time: 100 ms
AOut (V)	AIn (V)	DMM Read (V)	Ion/Photon Count	Time (s)	Frequency(THz)	Power(mW)
0.0	0	146737	0.10324859619140625	0	0
0.01	0	146737	0.2079911231994629	0	0
0.02	0	146737	0.31265997886657715	0	0
0.03	0	146737	0.41722917556762695	0	0
0.04	0	146737	0.5218737125396729	0	0
0.05	0	146737	0.6262111663818359	0	0
0.06	0	146738	0.7303633689880371	0	0
0.07	0	146738	0.8346374034881592	0	0
0.08	0	146738	0.9389386177062988	0	0
0.09	0	146738	1.0437986850738525	0	0
0.10	0	146738	1.1481187343597412	0	0
0.11	0	146738	1.2531840801239014	0	0
0.12	0	146738	1.3574681282043457	0	0
0.13	0	146738	1.4612438678741455	0	0
0.14	0	146738	1.5656144618988037	0	0
0.15	0	146738	1.6698276996612549	0	0
0.16	0	146739	1.773819923400879	0	0
0.17	0	146739	1.878065824508667	0	0
0.18	0	146739	1.9826040267944336	0	0
0.19	0	146739	2.0867393016815186	0	0
0.20	0	146739	2.1909291744232178	0	0
0.21	0	146739	2.295179605484009	0	0
0.22	0	146739	2.3997442722320557	0	0
0.23	0	146739	2.5038390159606934	0	0
0.24	0	146739	2.6079459190368652	0	0
0.25	0	146740	2.712116241455078	0	0
0.26	0	146740	2.816084861755371	0	0
0.27	0	146740	2.9202888011932373	0	0
0.28	0	146740	3.024583101272583	0	0
0.29	0	146740	3.1288297176361084	0	0
0.30	0	146740	3.233063220977783	0	0
0.31	0	146740	3.33721923828125	0	0
0.32	0	146740	3.4413259029388428	0	0
0.33	0	146740	3.545224666595459	0	0
0.34	0	146740	3.649515151977539	0	0
0.35	0	146741	3.7536699771881104	0	0
0.36	0	146741	3.857821226119995	0	0
0.37	0	146741	3.9618422985076904	0	0
0.38	0	146741	4.06592583656311	0	0
0.39	0	146741	4.170118570327759	0	0
0.40	0	146741	4.27424430847168	0	0
0.41	0	146741	4.37842869758606	0	0
0.42	0	146741	4.482573986053467	0	0
0.43	0	146741	4.58693528175354	0	0
0.44	0	146741	4.690922737121582	0	0
0.45	0	146742	4.795515298843384	0	0
0.46	0	146742	4.899677515029907	0	0
0.47	0	146742	5.003744602203369	0	0
0.48	0	146742	5.107962369918823	0	0
0.49	0	146742	5.2120819091796875	0	0
0.50	0	146742	5.322060585021973	0	0
0.51	0	146742	5.4260313510894775	0	0
0.52	0	146742	5.529845476150513	0	0
0.53	0	146742	5.6341705322265625	0	0
0.54	0	146742	5.738771200180054	0	0
0.55	0	146743	5.843071460723877	0	0
0.56	0	146743	5.947257041931152	0	0
0.57	0	146743	6.05146336555481	0	0
0.58	0	146743	6.15559720993042	0	0
0.59	0	146743	6.259687900543213	0	0
0.60	0	146743	6.363792657852173	0	0
0.61	0	146743	6.467969179153442	0	0
0.62	0	146743	6.574249267578125	0	0
0.63	0	146743	6.679681777954102	0	0
0.64	0	146744	6.78385066986084	0	0
0.65	0	146744	6.8879687786102295	0	0
0.66	0	146744	6.992141485214233	0	0
0.67	0	146744	7.096185684204102	0	0
0.68	0	146744	7.20030951499939	0	0
0.69	0	146744	7.30452823638916	0	0
0.70	0	146744	7.408527135848999	0	0
0.71	0	146744	7.512777805328369	0	0
0.72	0	146744	7.6172802448272705	0	0
0.73	0	146744	7.72144079208374	0	0
0.74	0	146745	7.825615406036377	0	0
0.75	0	146745	7.93013334274292	0	0
0.76	0	146745	8.034339189529419	0	0
0.77	0	146745	8.138458967208862	0	0
0.78	0	146745	8.242695569992065	0	0
0.79	0	146745	8.346831798553467	0	0
0.80	0	146745	8.450989961624146	0	0
0.81	0	146745	8.555420398712158	0	0
0.82	0	146745	8.659519672393799	0	0
0.83	0	146745	8.763500452041626	0	0
0.84	0	146746	8.867707252502441	0	0
0.85	0	146746	8.971855401992798	0	0
0.86	0	146746	9.07589316368103	0	0
0.87	0	146746	9.180102348327637	0	0
0.88	0	146746	9.286893844604492	0	0
0.89	0	146746	9.391403675079346	0	0
0.90	0	146746	9.49551796913147	0	0
0.91	0	146746	9.599666118621826	0	0
0.92	0	146746	9.703755140304565	0	0
0.93	0	146746	9.807955026626587	0	0
0.94	0	146747	9.911978006362915	0	0
0.95	0	146747	10.016181230545044	0	0
0.96	0	146747	10.120446920394897	0	0
0.97	0	146747	10.224515438079834	0	0
0.98	0	146747	10.32865047454834	0	0
0.99	0	146747	10.433117389678955	0	0
1.00	0	146747	10.538604736328125	0	0
1.01	0	146747	10.643355369567871	0	0
1.02	0	146747	10.747568845748901	0	0
1.03	0	146748	10.851723194122314	0	0
*	*	*	*	*	*
